Model,DPO4054
Firmware Version,2.68

Waveform Type,ANALOG,
Point Format,Y,
Horizontal Units,s,
Horizontal Scale,4e-05,
Horizontal Delay,0.0007592,
Sample Interval,4e-07,
Record Length,1000,
Gating,0.0% to 100.0%,
Probe Attenuation,1,
Vertical Units,V,
Vertical Offset,0,
Vertical Scale,0.2,
Vertical Position,0,
,,
,,
,,
Label,,
TIME,CH2,CH3
5.592e-04,-0.00684375,0.0173406
5.596e-04,-0.00746875,0.0174578
5.600e-04,-0.0078125,0.0173891
5.604e-04,-0.00784375,0.0173281
5.608e-04,-0.00728125,0.0173188
5.612e-04,-0.0083125,0.0172484
5.616e-04,-0.00796875,0.0172922
5.620e-04,-0.00834375,0.0172219
5.624e-04,-0.008125,0.0171594
5.628e-04,-0.00821875,0.0171734
5.632e-04,-0.00821875,0.0171016
5.636e-04,-0.0085625,0.0169672
5.640e-04,-0.00703125,0.0170375
5.644e-04,-0.00734375,0.0169469
5.648e-04,-0.0080625,0.0168438
5.652e-04,-0.00828125,0.0167875
5.656e-04,-0.00865625,0.0167906
5.660e-04,-0.0083125,0.0168453
5.664e-04,-0.009125,0.0166563
5.668e-04,-0.00825,0.0166859
5.672e-04,-0.00784375,0.0166234
5.676e-04,-0.00753125,0.0166297
5.680e-04,-0.009125,0.0164734
5.684e-04,-0.0080625,0.0165281
5.688e-04,-0.00828125,0.0165
5.692e-04,-0.0085,0.0165406
5.696e-04,-0.00721875,0.0165609
5.700e-04,-0.00875,0.016425
5.704e-04,-0.008625,0.0163344
5.708e-04,-0.008625,0.0162953
5.712e-04,-0.00703125,0.0163797
5.716e-04,-0.00775,0.0162953
5.720e-04,-0.00753125,0.0162719
5.724e-04,-0.00803125,0.0162156
5.728e-04,-0.00853125,0.0161672
5.732e-04,-0.00784375,0.0161641
5.736e-04,-0.00878125,0.0161234
5.740e-04,-0.00821875,0.016025
5.744e-04,-0.00825,0.0160062
5.748e-04,-0.008,0.0160453
5.752e-04,-0.00809375,0.0158812
5.756e-04,-0.00840625,0.0159125
5.760e-04,-0.00921875,0.0158281
5.764e-04,-0.00846875,0.0157766
5.768e-04,-0.00721875,0.0157703
5.772e-04,-0.0078125,0.0157547
5.776e-04,-0.009,0.0157547
5.780e-04,-0.00809375,0.0157156
5.784e-04,-0.00796875,0.0156344
5.788e-04,-0.00859375,0.0154797
5.792e-04,-0.0089375,0.0155453
5.796e-04,-0.0085,0.0155078
5.800e-04,-0.0076875,0.0154844
5.804e-04,-0.00778125,0.0154672
5.808e-04,-0.0079375,0.0153047
5.812e-04,-0.00815625,0.0153906
5.816e-04,-0.00865625,0.015325
5.820e-04,-0.0081875,0.0152406
5.824e-04,-0.0071875,0.0153734
5.828e-04,-0.0088125,0.0153063
5.832e-04,-0.0085,0.0152484
5.836e-04,-0.0089375,0.0151609
5.840e-04,-0.00884375,0.0151172
5.844e-04,-0.00846875,0.0151594
5.848e-04,-0.00790625,0.0151406
5.852e-04,-0.008625,0.0150109
5.856e-04,-0.00875,0.0150203
5.860e-04,-0.0079375,0.0150563
5.864e-04,-0.008125,0.0148984
5.868e-04,-0.0085625,0.0149375
5.872e-04,-0.007875,0.0148
5.876e-04,-0.0083125,0.0147656
5.880e-04,-0.00846875,0.0149031
5.884e-04,-0.007625,0.0148328
5.888e-04,-0.008625,0.0146234
5.892e-04,-0.0089375,0.0145313
5.896e-04,-0.007125,0.0147266
5.900e-04,-0.008,0.0145266
5.904e-04,-0.00921875,0.0144437
5.908e-04,-0.0084375,0.0146
5.912e-04,-0.007875,0.0144797
5.916e-04,-0.00875,0.0145453
5.920e-04,-0.00934375,0.0144531
5.924e-04,-0.00859375,0.0144516
5.928e-04,-0.00821875,0.0144656
5.932e-04,-0.00815625,0.0144437
5.936e-04,-0.0075625,0.0144422
5.940e-04,-0.00815625,0.0143438
5.944e-04,-0.0085625,0.0142359
5.948e-04,-0.0088125,0.0142125
5.952e-04,-0.00775,0.0142375
5.956e-04,-0.00921875,0.0141484
5.960e-04,-0.0090625,0.0141234
5.964e-04,-0.00871875,0.0140172
5.968e-04,-0.0084375,0.0141984
5.972e-04,-0.00834375,0.0140297
5.976e-04,-0.008,0.0139766
5.980e-04,-0.00859375,0.0139562
5.984e-04,-0.0076875,0.0138578
5.988e-04,-0.0081875,0.0139938
5.992e-04,-0.00884375,0.0137938
5.996e-04,-0.0084375,0.0137891
6.000e-04,-0.008375,0.0138375
6.004e-04,-0.008375,0.0139031
6.008e-04,-0.00784375,0.0137766
6.012e-04,-0.0081875,0.0137281
6.016e-04,-0.00890625,0.0136609
6.020e-04,-0.00853125,0.0135484
6.024e-04,-0.00815625,0.0136781
6.028e-04,-0.00875,0.0136547
6.032e-04,-0.00815625,0.0136781
6.036e-04,-0.0078125,0.0135719
6.040e-04,-0.0088125,0.013425
6.044e-04,-0.0083125,0.0135328
6.048e-04,-0.00915625,0.0133469
6.052e-04,-0.008625,0.0135078
6.056e-04,-0.00815625,0.0134234
6.060e-04,-0.0076875,0.0132234
6.064e-04,-0.00840625,0.0132922
6.068e-04,-0.00746875,0.01335
6.072e-04,-0.00903125,0.0131938
6.076e-04,-0.0085625,0.0132219
6.080e-04,-0.00740625,0.0132578
6.084e-04,-0.00909375,0.0130641
6.088e-04,-0.0085625,0.0131547
6.092e-04,-0.00821875,0.0130844
6.096e-04,-0.00878125,0.0130719
6.100e-04,-0.00846875,0.0130469
6.104e-04,-0.00809375,0.0129859
6.108e-04,-0.00840625,0.0129078
6.112e-04,-0.00859375,0.0130437
6.116e-04,-0.0085625,0.0129875
6.120e-04,-0.008625,0.0129594
6.124e-04,-0.0088125,0.0128984
6.128e-04,-0.008375,0.0129141
6.132e-04,-0.00859375,0.012775
6.136e-04,-0.007875,0.0127828
6.140e-04,-0.0085625,0.0127281
6.144e-04,-0.0090625,0.0127094
6.148e-04,-0.00846875,0.0126156
6.152e-04,-0.0071875,0.0127141
6.156e-04,-0.00815625,0.0126984
6.160e-04,-0.0083125,0.0125047
6.164e-04,-0.0083125,0.0126047
6.168e-04,-0.00865625,0.0126125
6.172e-04,-0.008375,0.0124938
6.176e-04,-0.00903125,0.0125469
6.180e-04,-0.0089375,0.01255
6.184e-04,-0.007875,0.0125188
6.188e-04,-0.007625,0.0123547
6.192e-04,-0.00840625,0.0123828
6.196e-04,-0.00784375,0.0125328
6.200e-04,-0.00875,0.0124844
6.204e-04,-0.0093125,0.0124859
6.208e-04,-0.00734375,0.0124578
6.212e-04,-0.00928125,0.0123344
6.216e-04,-0.00865625,0.0124109
6.220e-04,-0.00934375,0.0122828
6.224e-04,-0.00846875,0.0123125
6.228e-04,-0.008625,0.0121547
6.232e-04,-0.00809375,0.0122813
6.236e-04,-0.008375,0.0121781
6.240e-04,-0.00846875,0.0120781
6.244e-04,-0.0085,0.0119953
6.248e-04,-0.00909375,0.0120031
6.252e-04,-0.00853125,0.0120234
6.256e-04,-0.00821875,0.012
6.260e-04,-0.008125,0.0120016
6.264e-04,-0.008125,0.0119172
6.268e-04,-0.0083125,0.0119109
6.272e-04,-0.0090625,0.0118016
6.276e-04,-0.00875,0.0118609
6.280e-04,-0.00715625,0.0118547
6.284e-04,-0.0079375,0.01185
6.288e-04,-0.00896875,0.0117719
6.292e-04,-0.008375,0.0118016
6.296e-04,-0.00859375,0.0117359
6.300e-04,-0.0084375,0.0117563
6.304e-04,-0.009,0.0117172
6.308e-04,-0.0086875,0.0115266
6.312e-04,-0.0081875,0.0116313
6.316e-04,-0.00878125,0.0117656
6.320e-04,-0.00825,0.0115766
6.324e-04,-0.007875,0.0114125
6.328e-04,-0.00865625,0.0115
6.332e-04,-0.0085,0.0115516
6.336e-04,-0.0070625,0.0115203
6.340e-04,-0.00978125,0.011475
6.344e-04,-0.00903125,0.0114109
6.348e-04,-0.0084375,0.0113984
6.352e-04,-0.00878125,0.0114656
6.356e-04,-0.00703125,0.0113719
6.360e-04,-0.008375,0.0113375
6.364e-04,-0.00825,0.0114172
6.368e-04,-0.008,0.0113422
6.372e-04,-0.0074375,0.0112219
6.376e-04,-0.00896875,0.0112828
6.380e-04,-0.00875,0.0112203
6.384e-04,-0.00821875,0.01125
6.388e-04,-0.00809375,0.0111422
6.392e-04,-0.00878125,0.0111141
6.396e-04,-0.00915625,0.0111062
6.400e-04,-0.009,0.0110359
6.404e-04,-0.009125,0.0110766
6.408e-04,-0.00725,0.0109938
6.412e-04,-0.0075625,0.0109484
6.416e-04,-0.00846875,0.0109812
6.420e-04,-0.0085,0.0108875
6.424e-04,-0.00878125,0.0110094
6.428e-04,-0.008375,0.0108297
6.432e-04,-0.00884375,0.0108906
6.436e-04,-0.00853125,0.0108875
6.440e-04,-0.007625,0.0107828
6.444e-04,-0.00834375,0.0109047
6.448e-04,-0.00921875,0.0107188
6.452e-04,-0.0079375,0.0108094
6.456e-04,-0.009,0.0106953
6.460e-04,-0.00859375,0.0106344
6.464e-04,-0.007375,0.0106672
6.468e-04,-0.0090625,0.0106422
6.472e-04,-0.009,0.0106234
6.476e-04,-0.00984375,0.0106516
6.480e-04,-0.0086875,0.0106063
6.484e-04,-0.00815625,0.0107016
6.488e-04,-0.00846875,0.0105328
6.492e-04,-0.008875,0.0104813
6.496e-04,-0.00909375,0.0105469
6.500e-04,-0.00878125,0.0104797
6.504e-04,-0.0089375,0.010525
6.508e-04,-0.00853125,0.0103219
6.512e-04,-0.00871875,0.0103906
6.516e-04,-0.0085,0.0104078
6.520e-04,-0.00821875,0.010475
6.524e-04,-0.00859375,0.0103344
6.528e-04,-0.009,0.0101125
6.532e-04,-0.00875,0.0103063
6.536e-04,-0.0079375,0.0102359
6.540e-04,-0.0086875,0.0101219
6.544e-04,-0.00809375,0.0103016
6.548e-04,-0.00828125,0.0102484
6.552e-04,-0.00896875,0.0100484
6.556e-04,-0.00815625,0.0100844
6.560e-04,-0.00940625,0.0101141
6.564e-04,-0.00884375,0.0100891
6.568e-04,-0.0083125,0.0100953
6.572e-04,-0.008375,0.0101312
6.576e-04,-0.0085625,0.0100266
6.580e-04,-0.00865625,0.00993594
6.584e-04,-0.00878125,0.00989219
6.588e-04,-0.0086875,0.0101
6.592e-04,-0.00709375,0.00995781
6.596e-04,-0.00940625,0.00985469
6.600e-04,-0.00871875,0.00976719
6.604e-04,-0.009375,0.00990937
6.608e-04,-0.00840625,0.00987188
6.612e-04,-0.0081875,0.0097875
6.616e-04,-0.0075625,0.00980938
6.620e-04,-0.0091875,0.00974688
6.624e-04,-0.00865625,0.00973906
6.628e-04,-0.007875,0.00962656
6.632e-04,-0.00946875,0.009775
6.636e-04,-0.008875,0.00976875
6.640e-04,-0.00828125,0.00967656
6.644e-04,-0.00865625,0.00964062
6.648e-04,-0.0088125,0.00962813
6.652e-04,-0.009375,0.00947656
6.656e-04,-0.00884375,0.00954219
6.660e-04,-0.0085,0.009475
6.664e-04,-0.007375,0.0096625
6.668e-04,-0.00821875,0.00945781
6.672e-04,-0.009125,0.00947188
6.676e-04,-0.0085625,0.00952969
6.680e-04,-0.0088125,0.00938906
6.684e-04,-0.00803125,0.00945469
6.688e-04,-0.0095625,0.00940625
6.692e-04,-0.008875,0.0093875
6.696e-04,-0.008125,0.00946406
6.700e-04,-0.00865625,0.00930156
6.704e-04,-0.0079375,0.00938125
6.708e-04,-0.00884375,0.00924219
6.712e-04,-0.0086875,0.00925
6.716e-04,-0.0095,0.00917969
6.720e-04,-0.00715625,0.00931563
6.724e-04,-0.00978125,0.00918437
6.728e-04,-0.00853125,0.0091625
6.732e-04,-0.00878125,0.00911094
6.736e-04,-0.0086875,0.00914063
6.740e-04,-0.00803125,0.00902031
6.744e-04,-0.008125,0.00900938
6.748e-04,-0.0090625,0.00907188
6.752e-04,-0.0088125,0.00899844
6.756e-04,-0.007625,0.00906406
6.760e-04,-0.0091875,0.00901563
6.764e-04,-0.0088125,0.00900156
6.768e-04,-0.00821875,0.00886875
6.772e-04,-0.00834375,0.0089375
6.776e-04,-0.00821875,0.00892813
6.780e-04,-0.00875,0.00887969
6.784e-04,-0.0088125,0.00883125
6.788e-04,-0.0086875,0.00897031
6.792e-04,-0.00771875,0.00891406
6.796e-04,-0.009625,0.00891094
6.800e-04,-0.00828125,0.00891562
6.804e-04,-0.00896875,0.00896094
6.808e-04,-0.00859375,0.0086375
6.812e-04,-0.0085,0.00863906
6.816e-04,-0.00903125,0.00866719
6.820e-04,-0.00903125,0.00879062
6.824e-04,-0.0079375,0.00875937
6.828e-04,-0.00834375,0.00863437
6.832e-04,-0.00884375,0.0086625
6.836e-04,-0.0081875,0.00864375
6.840e-04,-0.0089375,0.00849375
6.844e-04,-0.0085625,0.00864688
6.848e-04,-0.00703125,0.00847812
6.852e-04,-0.00984375,0.00839687
6.856e-04,-0.0089375,0.00842031
6.860e-04,-0.00971875,0.00845781
6.864e-04,-0.0085,0.00856406
6.868e-04,-0.0080625,0.00850625
6.872e-04,-0.00834375,0.00856563
6.876e-04,-0.0076875,0.00855781
6.880e-04,-0.0090625,0.00830312
6.884e-04,-0.008125,0.00837813
6.888e-04,-0.00890625,0.00831563
6.892e-04,-0.00834375,0.00829219
6.896e-04,-0.008,0.00830156
6.900e-04,-0.00828125,0.00824688
6.904e-04,-0.008,0.00828906
6.908e-04,-0.00871875,0.00822969
6.912e-04,-0.009375,0.00819844
6.916e-04,-0.00884375,0.00827656
6.920e-04,-0.0075625,0.00824062
6.924e-04,-0.00825,0.00820469
6.928e-04,-0.00828125,0.00820781
6.932e-04,-0.008875,0.00809219
6.936e-04,-0.0083125,0.00810156
6.940e-04,-0.0086875,0.0082625
6.944e-04,-0.00959375,0.00809531
6.948e-04,-0.00859375,0.00801563
6.952e-04,-0.008,0.00807813
6.956e-04,-0.00834375,0.00807813
6.960e-04,-0.008625,0.00803594
6.964e-04,-0.00834375,0.00809063
6.968e-04,-0.0086875,0.00802188
6.972e-04,-0.009,0.00802656
6.976e-04,-0.007,0.00793281
6.980e-04,-0.00934375,0.00787812
6.984e-04,-0.0085625,0.00792969
6.988e-04,-0.00890625,0.00796563
6.992e-04,-0.00921875,0.00786719
6.996e-04,-0.008,0.00794844
7.000e-04,-0.0083125,0.0078875
7.004e-04,-0.00821875,0.00792031
7.008e-04,-0.009,0.00774375
7.012e-04,-0.00815625,0.00775938
7.016e-04,-0.0094375,0.00759063
7.020e-04,-0.00803125,0.00776094
7.024e-04,-0.0078125,0.00785469
7.028e-04,-0.00840625,0.00782969
7.032e-04,-0.00796875,0.00783594
7.036e-04,-0.00890625,0.007625
7.040e-04,-0.00928125,0.00769844
7.044e-04,-0.00875,0.00757969
7.048e-04,-0.007,0.00771094
7.052e-04,-0.0089375,0.00763594
7.056e-04,-0.0084375,0.00754844
7.060e-04,-0.00878125,0.00750625
7.064e-04,-0.0085,0.00756406
7.068e-04,-0.00865625,0.00743125
7.072e-04,-0.00978125,0.00752813
7.076e-04,-0.00896875,0.00755625
7.080e-04,-0.00853125,0.00752188
7.084e-04,-0.0079375,0.00741563
7.088e-04,-0.00815625,0.00745781
7.092e-04,-0.008375,0.00744688
7.096e-04,-0.0085625,0.0073625
7.100e-04,-0.0086875,0.00729375
7.104e-04,-0.0073125,0.00748281
7.108e-04,-0.0100625,0.00740469
7.112e-04,-0.00865625,0.00729219
7.116e-04,-0.0094375,0.00739688
7.120e-04,-0.0091875,0.00736563
7.124e-04,-0.0081875,0.00745625
7.128e-04,-0.0085,0.0073125
7.132e-04,-0.00834375,0.00733125
7.136e-04,-0.0093125,0.00730156
7.140e-04,-0.008,0.007275
7.144e-04,-0.0095625,0.00726875
7.148e-04,-0.00875,0.00725938
7.152e-04,-0.00778125,0.00724219
7.156e-04,-0.00778125,0.00717344
7.160e-04,-0.00878125,0.0072625
7.164e-04,-0.00915625,0.00704688
7.168e-04,-0.00928125,0.00709844
7.172e-04,-0.00925,0.00705469
7.176e-04,-0.00709375,0.00717188
7.180e-04,-0.009375,0.00705781
7.184e-04,-0.00896875,0.00709688
7.188e-04,-0.009625,0.00710938
7.192e-04,-0.00884375,0.00710625
7.196e-04,-0.00853125,0.0070875
7.200e-04,-0.00975,0.00675781
7.204e-04,-0.008875,0.007025
7.208e-04,-0.008125,0.00697344
7.212e-04,-0.00796875,0.00691563
7.216e-04,-0.008125,0.0069125
7.220e-04,-0.00871875,0.00677969
7.224e-04,-0.00921875,0.00693281
7.228e-04,-0.0085625,0.00693281
7.232e-04,-0.0074375,0.00685
7.236e-04,-0.01025,0.00688125
7.240e-04,-0.00925,0.00677188
7.244e-04,-0.009125,0.00674063
7.248e-04,-0.0088125,0.00686719
7.252e-04,-0.00846875,0.00673594
7.256e-04,-0.00834375,0.00682188
7.260e-04,-0.00934375,0.00667031
7.264e-04,-0.00953125,0.00667813
7.268e-04,-0.00696875,0.00685
7.272e-04,-0.00915625,0.00670625
7.276e-04,-0.00865625,0.00674688
7.280e-04,-0.00853125,0.00664063
7.284e-04,-0.00865625,0.00652969
7.288e-04,-0.0076875,0.00667969
7.292e-04,-0.0084375,0.00665156
7.296e-04,-0.0095625,0.00660625
7.300e-04,-0.0093125,0.00669844
7.304e-04,-0.00678125,0.00657813
7.308e-04,-0.0078125,0.0064375
7.312e-04,-0.0090625,0.00663125
7.316e-04,-0.0085,0.00646719
7.320e-04,-0.00921875,0.00663906
7.324e-04,-0.00825,0.00651406
7.328e-04,-0.00915625,0.00651563
7.332e-04,-0.009125,0.00654844
7.336e-04,-0.00871875,0.00640938
7.340e-04,-0.00871875,0.00623281
7.344e-04,-0.008875,0.00647969
7.348e-04,-0.00896875,0.0064125
7.352e-04,-0.00903125,0.00634375
7.356e-04,-0.0086875,0.00645625
7.360e-04,-0.00765625,0.00639375
7.364e-04,-0.00953125,0.00632188
7.368e-04,-0.00853125,0.00633594
7.372e-04,-0.009,0.00618906
7.376e-04,-0.0086875,0.00618906
7.380e-04,-0.00840625,0.00626875
7.384e-04,-0.008875,0.006275
7.388e-04,-0.0080625,0.00629688
7.392e-04,-0.00959375,0.00616875
7.396e-04,-0.0081875,0.00628594
7.400e-04,-0.00875,0.00617344
7.404e-04,-0.00778125,0.00623594
7.408e-04,-0.00840625,0.00618906
7.412e-04,-0.00846875,0.00604375
7.416e-04,-0.00803125,0.00613906
7.420e-04,-0.0095,0.00612969
7.424e-04,-0.00890625,0.00615313
7.428e-04,-0.00859375,0.00598438
7.432e-04,-0.00690625,0.00610625
7.436e-04,-0.00796875,0.00608906
7.440e-04,-0.008125,0.00602188
7.444e-04,-0.00878125,0.00592813
7.448e-04,-0.00896875,0.006025
7.452e-04,-0.00815625,0.00605156
7.456e-04,-0.0094375,0.00594687
7.460e-04,-0.0091875,0.0059125
7.464e-04,-0.00753125,0.00604688
7.468e-04,-0.00828125,0.00587188
7.472e-04,-0.00884375,0.00576875
7.476e-04,-0.00865625,0.00594219
7.480e-04,-0.00865625,0.00592813
7.484e-04,-0.00871875,0.00590469
7.488e-04,-0.00765625,0.00583281
7.492e-04,-0.0099375,0.00582969
7.496e-04,-0.009375,0.00591094
7.500e-04,-0.00940625,0.00584531
7.504e-04,-0.00903125,0.00593906
7.508e-04,-0.008125,0.00591406
7.512e-04,-0.00875,0.00570156
7.516e-04,-0.00890625,0.00573281
7.520e-04,-0.00884375,0.00581875
7.524e-04,-0.0079375,0.00567656
7.528e-04,-0.00940625,0.00580156
7.532e-04,-0.00853125,0.00569688
7.536e-04,-0.00859375,0.00572344
7.540e-04,-0.00871875,0.00552187
7.544e-04,-0.00846875,0.00572031
7.548e-04,-0.00809375,0.00567188
7.552e-04,-0.00946875,0.00561875
7.556e-04,-0.008625,0.00547188
7.560e-04,-0.00771875,0.00577969
7.564e-04,-0.0083125,0.00561875
7.568e-04,-0.00803125,0.00558906
7.572e-04,-0.00940625,0.00552187
7.576e-04,-0.0089375,0.005575
7.580e-04,-0.008,0.00562344
7.584e-04,-0.00946875,0.00565469
7.588e-04,-0.00953125,0.00551719
7.592e-04,-0.00821875,0.00552813
7.596e-04,-0.0081875,0.00555156
7.600e-04,-0.0085,0.00556094
7.604e-04,-0.008875,0.0055
7.608e-04,-0.00859375,0.00543906
7.612e-04,-0.00925,0.00559219
7.616e-04,-0.00771875,0.00547813
7.620e-04,-0.0093125,0.00544219
7.624e-04,-0.0094375,0.00544063
7.628e-04,-0.00959375,0.0054375
7.632e-04,-0.0086875,0.00541094
7.636e-04,-0.0085625,0.005425
7.640e-04,-0.00909375,0.0053875
7.644e-04,-0.00878125,0.00537344
7.648e-04,-0.009,0.0053
7.652e-04,-0.00821875,0.00524844
7.656e-04,-0.009125,0.00544531
7.660e-04,-0.00803125,0.00528906
7.664e-04,-0.0086875,0.00525625
7.668e-04,-0.00925,0.00514688
7.672e-04,-0.00809375,0.00537187
7.676e-04,-0.00940625,0.00526094
7.680e-04,-0.0095,0.00522344
7.684e-04,-0.0089375,0.00513281
7.688e-04,-0.00753125,0.00518906
7.692e-04,-0.00815625,0.00519375
7.696e-04,-0.00846875,0.005175
7.700e-04,-0.0093125,0.00510313
7.704e-04,-0.0088125,0.0052125
7.708e-04,-0.00815625,0.00520313
7.712e-04,-0.00925,0.00497031
7.716e-04,-0.00928125,0.00522813
7.720e-04,-0.00925,0.00519062
7.724e-04,-0.00846875,0.00514844
7.728e-04,-0.008375,0.00515313
7.732e-04,-0.00840625,0.00515625
7.736e-04,-0.008875,0.00513125
7.740e-04,-0.00834375,0.00501563
7.744e-04,-0.00784375,0.00529219
7.748e-04,-0.00984375,0.00507813
7.752e-04,-0.00840625,0.00504844
7.756e-04,-0.0095625,0.0050625
7.760e-04,-0.00921875,0.0051375
7.764e-04,-0.0084375,0.00491094
7.768e-04,-0.00859375,0.00497188
7.772e-04,-0.00903125,0.004975
7.776e-04,-0.00875,0.00491094
7.780e-04,-0.00740625,0.00504062
7.784e-04,-0.00865625,0.00476562
7.788e-04,-0.00871875,0.0050125
7.792e-04,-0.00853125,0.00481094
7.796e-04,-0.009,0.00487031
7.800e-04,-0.008125,0.00494531
7.804e-04,-0.0086875,0.00498438
7.808e-04,-0.009625,0.00477344
7.812e-04,-0.009125,0.00480313
7.816e-04,-0.00775,0.00494219
7.820e-04,-0.008375,0.00482031
7.824e-04,-0.008875,0.00484375
7.828e-04,-0.009375,0.00469688
7.832e-04,-0.00915625,0.00472969
7.836e-04,-0.00790625,0.00479531
7.840e-04,-0.00965625,0.0048375
7.844e-04,-0.00921875,0.00464687
7.848e-04,-0.00859375,0.00468438
7.852e-04,-0.00853125,0.00464219
7.856e-04,-0.00878125,0.00468281
7.860e-04,-0.0085,0.00472656
7.864e-04,-0.00890625,0.00464844
7.868e-04,-0.00878125,0.00469219
7.872e-04,-0.00825,0.00475
7.876e-04,-0.0096875,0.00456406
7.880e-04,-0.008375,0.00472344
7.884e-04,-0.00940625,0.00473906
7.888e-04,-0.00928125,0.00463125
7.892e-04,-0.00815625,0.00464531
7.896e-04,-0.00875,0.00467344
7.900e-04,-0.0078125,0.00466094
7.904e-04,-0.0089375,0.00463281
7.908e-04,-0.00746875,0.00459375
7.912e-04,-0.0093125,0.00438125
7.916e-04,-0.00846875,0.00450469
7.920e-04,-0.0085,0.00450313
7.924e-04,-0.0093125,0.00453438
7.928e-04,-0.00784375,0.00450781
7.932e-04,-0.0085625,0.00443281
7.936e-04,-0.009375,0.00457344
7.940e-04,-0.00903125,0.00440938
7.944e-04,-0.00728125,0.00458437
7.948e-04,-0.008375,0.00438906
7.952e-04,-0.00821875,0.00429219
7.956e-04,-0.0089375,0.0043875
7.960e-04,-0.00896875,0.00446719
7.964e-04,-0.00796875,0.00432656
7.968e-04,-0.00915625,0.00444531
7.972e-04,-0.00984375,0.00437031
7.976e-04,-0.0085625,0.00438281
7.980e-04,-0.008625,0.00436406
7.984e-04,-0.0081875,0.00442344
7.988e-04,-0.00853125,0.00446719
7.992e-04,-0.00940625,0.00425781
7.996e-04,-0.008625,0.00437031
8.000e-04,-0.008875,0.00444531
8.004e-04,-0.0094375,0.00415937
8.008e-04,-0.00796875,0.00441094
8.012e-04,-0.0086875,0.00434375
8.016e-04,-0.00865625,0.00417031
8.020e-04,-0.0086875,0.00426406
8.024e-04,-0.00878125,0.0042625
8.028e-04,-0.0080625,0.00426094
8.032e-04,-0.00890625,0.00419219
8.036e-04,-0.00728125,0.00417813
8.040e-04,-0.0094375,0.0041375
8.044e-04,-0.008,0.00429531
8.048e-04,-0.00840625,0.00414688
8.052e-04,-0.00890625,0.00428594
8.056e-04,-0.00809375,0.00416094
8.060e-04,-0.00846875,0.00413594
8.064e-04,-0.009125,0.00421094
8.068e-04,-0.0086875,0.00429219
8.072e-04,-0.00871875,0.00418125
8.076e-04,-0.0085625,0.00406562
8.080e-04,-0.00825,0.00414219
8.084e-04,-0.00928125,0.00399531
8.088e-04,-0.00896875,0.00417813
8.092e-04,-0.0084375,0.00400469
8.096e-04,-0.00984375,0.00399063
8.100e-04,-0.008875,0.00416406
8.104e-04,-0.0090625,0.00413594
8.108e-04,-0.008,0.00406875
8.112e-04,-0.00953125,0.0041125
8.116e-04,-0.00859375,0.0041625
8.120e-04,-0.00859375,0.00385313
8.124e-04,-0.00784375,0.00397031
8.128e-04,-0.007375,0.00402344
8.132e-04,-0.00959375,0.00385313
8.136e-04,-0.00834375,0.00395625
8.140e-04,-0.00959375,0.00398906
8.144e-04,-0.00878125,0.00393281
8.148e-04,-0.00828125,0.00404375
8.152e-04,-0.00865625,0.00389531
8.156e-04,-0.00828125,0.00407656
8.160e-04,-0.00859375,0.00389375
8.164e-04,-0.0076875,0.00389531
8.168e-04,-0.00934375,0.00383281
8.172e-04,-0.00865625,0.00392031
8.176e-04,-0.008375,0.00391875
8.180e-04,-0.0083125,0.00401094
8.184e-04,-0.0080625,0.00389531
8.188e-04,-0.00878125,0.00374063
8.192e-04,-0.0099375,0.00382031
8.196e-04,-0.00928125,0.00372969
8.200e-04,-0.007625,0.0038125
8.204e-04,-0.008625,0.00387031
8.208e-04,-0.0081875,0.00385625
8.212e-04,-0.00878125,0.00388594
8.216e-04,-0.00896875,0.00391719
8.220e-04,-0.008125,0.00369688
8.224e-04,-0.00903125,0.00372813
8.228e-04,-0.0089375,0.00391406
8.232e-04,-0.0088125,0.00366875
8.236e-04,-0.00890625,0.00377813
8.240e-04,-0.00828125,0.00378125
8.244e-04,-0.0085625,0.00385469
8.248e-04,-0.009375,0.00368438
8.252e-04,-0.00940625,0.00386719
8.256e-04,-0.0081875,0.00364375
8.260e-04,-0.00946875,0.0036
8.264e-04,-0.008625,0.00374844
8.268e-04,-0.00909375,0.00359844
8.272e-04,-0.0088125,0.0036625
8.276e-04,-0.00821875,0.00364219
8.280e-04,-0.00921875,0.00357813
8.284e-04,-0.00878125,0.00364063
8.288e-04,-0.0085,0.00367969
8.292e-04,-0.0081875,0.0036375
8.296e-04,-0.00925,0.00363125
8.300e-04,-0.0085625,0.00359063
8.304e-04,-0.0085,0.00362188
8.308e-04,-0.0095,0.00351563
8.312e-04,-0.00790625,0.00349531
8.316e-04,-0.0093125,0.0036
8.320e-04,-0.00934375,0.00350156
8.324e-04,-0.0090625,0.00354688
8.328e-04,-0.00753125,0.00362188
8.332e-04,-0.00771875,0.00352969
8.336e-04,-0.00790625,0.0035625
8.340e-04,-0.00890625,0.00367656
8.344e-04,-0.009,0.0035125
8.348e-04,-0.00809375,0.00354063
8.352e-04,-0.00896875,0.00352031
8.356e-04,-0.00965625,0.00358125
8.360e-04,-0.008625,0.00347188
8.364e-04,-0.008875,0.0034
8.368e-04,-0.0085625,0.003325
8.372e-04,-0.0085,0.00356094
8.376e-04,-0.0101563,0.0034875
8.380e-04,-0.00896875,0.00336719
8.384e-04,-0.0074375,0.00338906
8.388e-04,-0.0098125,0.00343281
8.392e-04,-0.008625,0.0032875
8.396e-04,-0.0096875,0.00340938
8.400e-04,-0.00909375,0.00333438
8.404e-04,-0.008,0.00342969
8.408e-04,-0.0086875,0.00332188
8.412e-04,-0.0081875,0.00333438
8.416e-04,-0.00859375,0.00333906
8.420e-04,-0.00759375,0.00342344
8.424e-04,-0.0096875,0.00326563
8.428e-04,-0.00928125,0.00330938
8.432e-04,-0.00903125,0.00342188
8.436e-04,-0.00890625,0.00324531
8.440e-04,-0.00784375,0.00329063
8.444e-04,-0.009,0.0033375
8.448e-04,-0.0093125,0.00312344
8.452e-04,-0.00859375,0.00319531
8.456e-04,-0.00796875,0.00330313
8.460e-04,-0.0079375,0.00328125
8.464e-04,-0.008,0.00329375
8.468e-04,-0.0095,0.00315938
8.472e-04,-0.00925,0.00312344
8.476e-04,-0.00828125,0.0033125
8.480e-04,-0.0090625,0.00327969
8.484e-04,-0.0093125,0.00324063
8.488e-04,-0.00828125,0.00335
8.492e-04,-0.0083125,0.00320469
8.496e-04,-0.00896875,0.00319688
8.500e-04,-0.0085625,0.00310312
8.504e-04,-0.00896875,0.0031
8.508e-04,-0.00875,0.00323906
8.512e-04,-0.00734375,0.0032125
8.516e-04,-0.0100625,0.00312188
8.520e-04,-0.00853125,0.00302969
8.524e-04,-0.0094375,0.00316719
8.528e-04,-0.00896875,0.00313281
8.532e-04,-0.00846875,0.00307031
8.536e-04,-0.0086875,0.0030625
8.540e-04,-0.00890625,0.00322813
8.544e-04,-0.0085,0.00320625
8.548e-04,-0.00740625,0.00311406
8.552e-04,-0.010125,0.00301094
8.556e-04,-0.00875,0.00305625
8.560e-04,-0.00846875,0.00315938
8.564e-04,-0.009,0.00297188
8.568e-04,-0.0084375,0.00309063
8.572e-04,-0.009,0.00307187
8.576e-04,-0.00975,0.00302344
8.580e-04,-0.00846875,0.00311563
8.584e-04,-0.0073125,0.00315469
8.588e-04,-0.00809375,0.00310469
8.592e-04,-0.008125,0.00292813
8.596e-04,-0.00846875,0.00290313
8.600e-04,-0.0091875,0.00291719
8.604e-04,-0.0075,0.00287813
8.608e-04,-0.009875,0.00297188
8.612e-04,-0.0095,0.00292656
8.616e-04,-0.009,0.0031
8.620e-04,-0.008625,0.00300156
8.624e-04,-0.00853125,0.0029375
8.628e-04,-0.00846875,0.00305313
8.632e-04,-0.009375,0.00292031
8.636e-04,-0.0088125,0.00294219
8.640e-04,-0.00840625,0.00301719
8.644e-04,-0.00984375,0.00285625
8.648e-04,-0.0090625,0.00292656
8.652e-04,-0.00915625,0.00289062
8.656e-04,-0.008625,0.00282969
8.660e-04,-0.0084375,0.00289219
8.664e-04,-0.008375,0.00287344
8.668e-04,-0.00828125,0.0029625
8.672e-04,-0.00925,0.0029
8.676e-04,-0.00775,0.00286406
8.680e-04,-0.009375,0.00278281
8.684e-04,-0.00909375,0.00287344
8.688e-04,-0.00921875,0.0028
8.692e-04,-0.00828125,0.00267656
8.696e-04,-0.0084375,0.00284219
8.700e-04,-0.00859375,0.00272344
8.704e-04,-0.0101875,0.00272344
8.708e-04,-0.00865625,0.00282031
8.712e-04,-0.00728125,0.002775
8.716e-04,-0.00865625,0.00271094
8.720e-04,-0.00821875,0.00278437
8.724e-04,-0.0089375,0.00265781
8.728e-04,-0.0089375,0.00287813
8.732e-04,-0.00828125,0.00275781
8.736e-04,-0.00903125,0.0027625
8.740e-04,-0.00909375,0.002725
8.744e-04,-0.00790625,0.00279219
8.748e-04,-0.00878125,0.00268438
8.752e-04,-0.0083125,0.00282656
8.756e-04,-0.0085,0.00268906
8.760e-04,-0.009125,0.00264687
8.764e-04,-0.00859375,0.00264219
8.768e-04,-0.008,0.00269375
8.772e-04,-0.0096875,0.00258594
8.776e-04,-0.00840625,0.00274688
8.780e-04,-0.0095625,0.00262188
8.784e-04,-0.00925,0.00259063
8.788e-04,-0.00796875,0.00268125
8.792e-04,-0.00825,0.00269688
8.796e-04,-0.0089375,0.00266719
8.800e-04,-0.00815625,0.0026625
8.804e-04,-0.00825,0.00261094
8.808e-04,-0.00928125,0.00263281
8.812e-04,-0.008375,0.00256563
8.816e-04,-0.008125,0.00260938
8.820e-04,-0.00853125,0.00259844
8.824e-04,-0.00803125,0.00258125
8.828e-04,-0.008125,0.00259844
8.832e-04,-0.00990625,0.002475
8.836e-04,-0.00859375,0.00272188
8.840e-04,-0.00821875,0.00262969
8.844e-04,-0.00903125,0.00254531
8.848e-04,-0.0081875,0.00251406
8.852e-04,-0.00875,0.00246094
8.856e-04,-0.00875,0.00264375
8.860e-04,-0.008125,0.00253125
8.864e-04,-0.00934375,0.00251719
8.868e-04,-0.00946875,0.00239531
8.872e-04,-0.00846875,0.0025375
8.876e-04,-0.00875,0.00258906
8.880e-04,-0.00915625,0.0025
8.884e-04,-0.00915625,0.00240781
8.888e-04,-0.00875,0.0024
8.892e-04,-0.009,0.00245938
8.896e-04,-0.00871875,0.00252656
8.900e-04,-0.0095625,0.00239375
8.904e-04,-0.0086875,0.00239844
8.908e-04,-0.009375,0.00247813
8.912e-04,-0.00884375,0.0023375
8.916e-04,-0.0086875,0.0024625
8.920e-04,-0.0089375,0.00231406
8.924e-04,-0.00809375,0.00247031
8.928e-04,-0.00909375,0.00240313
8.932e-04,-0.0078125,0.00254219
8.936e-04,-0.0093125,0.00242813
8.940e-04,-0.00865625,0.00243906
8.944e-04,-0.00859375,0.00236719
8.948e-04,-0.0085,0.00232969
8.952e-04,-0.00703125,0.00242031
8.956e-04,-0.00915625,0.002275
8.960e-04,-0.00953125,0.00229375
8.964e-04,-0.00921875,0.00223438
8.968e-04,-0.00828125,0.00245313
8.972e-04,-0.00846875,0.00239844
8.976e-04,-0.00859375,0.00232344
8.980e-04,-0.009375,0.00240938
8.984e-04,-0.00915625,0.00230313
8.988e-04,-0.008375,0.00229844
8.992e-04,-0.0093125,0.00223281
8.996e-04,-0.0093125,0.00235781
9.000e-04,-0.0086875,0.00236094
9.004e-04,-0.00965625,0.00233438
9.008e-04,-0.00875,0.002425
9.012e-04,-0.00878125,0.00230469
9.016e-04,-0.008625,0.00231875
9.020e-04,-0.00803125,0.00237031
9.024e-04,-0.0081875,0.00232656
9.028e-04,-0.0099375,0.00219063
9.032e-04,-0.00878125,0.00230781
9.036e-04,-0.009375,0.002275
9.040e-04,-0.00871875,0.00229219
9.044e-04,-0.007875,0.00215469
9.048e-04,-0.00928125,0.00227188
9.052e-04,-0.00840625,0.00220781
9.056e-04,-0.0095,0.00224688
9.060e-04,-0.00815625,0.0022
9.064e-04,-0.00909375,0.0023
9.068e-04,-0.00871875,0.00230938
9.072e-04,-0.00878125,0.00217656
9.076e-04,-0.00878125,0.002125
9.080e-04,-0.00740625,0.00225625
9.084e-04,-0.0085,0.00207656
9.088e-04,-0.0094375,0.00224531
9.092e-04,-0.00928125,0.00217656
9.096e-04,-0.0071875,0.00218438
9.100e-04,-0.0081875,0.00216875
9.104e-04,-0.00940625,0.00216875
9.108e-04,-0.00871875,0.00212031
9.112e-04,-0.0090625,0.00212656
9.116e-04,-0.0084375,0.00213281
9.120e-04,-0.00965625,0.00213594
9.124e-04,-0.00965625,0.00207656
9.128e-04,-0.00896875,0.00217812
9.132e-04,-0.009,0.00208438
9.136e-04,-0.0091875,0.00218594
9.140e-04,-0.00840625,0.00211563
9.144e-04,-0.00928125,0.00213125
9.148e-04,-0.00825,0.00212969
9.152e-04,-0.00778125,0.00218906
9.156e-04,-0.0100313,0.00211563
9.160e-04,-0.0091875,0.00209688
9.164e-04,-0.0099375,0.00197969
9.168e-04,-0.0085,0.00209531
9.172e-04,-0.008125,0.00210625
9.176e-04,-0.0089375,0.00220469
9.180e-04,-0.00921875,0.00200313
9.184e-04,-0.00934375,0.00185469
9.188e-04,-0.0080625,0.00198906
9.192e-04,-0.0091875,0.00213437
9.196e-04,-0.00878125,0.00195156
9.200e-04,-0.00903125,0.00197969
9.204e-04,-0.00890625,0.00192656
9.208e-04,-0.008,0.00208906
9.212e-04,-0.00890625,0.00203125
9.216e-04,-0.00953125,0.00192656
9.220e-04,-0.0091875,0.00203906
9.224e-04,-0.00765625,0.00199375
9.228e-04,-0.0076875,0.00196562
9.232e-04,-0.00871875,0.00195156
9.236e-04,-0.00925,0.00202969
9.240e-04,-0.0088125,0.00195
9.244e-04,-0.00821875,0.00196875
9.248e-04,-0.01025,0.00209531
9.252e-04,-0.00953125,0.00191094
9.256e-04,-0.00821875,0.00195625
9.260e-04,-0.00953125,0.00202969
9.264e-04,-0.00875,0.00187813
9.268e-04,-0.00871875,0.00197031
9.272e-04,-0.00859375,0.00188437
9.276e-04,-0.0084375,0.00195625
9.280e-04,-0.00871875,0.00192969
9.284e-04,-0.00965625,0.00194375
9.288e-04,-0.008125,0.00200313
9.292e-04,-0.00884375,0.00185625
9.296e-04,-0.00896875,0.00179219
9.300e-04,-0.00765625,0.00181406
9.304e-04,-0.00871875,0.00191875
9.308e-04,-0.00771875,0.0019375
9.312e-04,-0.009,0.00186094
9.316e-04,-0.0076875,0.00198281
9.320e-04,-0.0095625,0.00178438
9.324e-04,-0.00865625,0.00175938
9.328e-04,-0.008625,0.00185625
9.332e-04,-0.008625,0.00189844
9.336e-04,-0.00909375,0.00186875
9.340e-04,-0.0090625,0.00174219
9.344e-04,-0.009625,0.00175625
9.348e-04,-0.0088125,0.00187188
9.352e-04,-0.00746875,0.00181406
9.356e-04,-0.00815625,0.00180469
9.360e-04,-0.0090625,0.00184531
9.364e-04,-0.00896875,0.00172031
9.368e-04,-0.00875,0.00194531
9.372e-04,-0.00828125,0.00186406
9.376e-04,-0.00978125,0.00183438
9.380e-04,-0.0094375,0.0018875
9.384e-04,-0.0088125,0.00174375
9.388e-04,-0.00825,0.001775
9.392e-04,-0.00896875,0.00182188
9.396e-04,-0.00828125,0.00187656
9.400e-04,-0.00859375,0.00180313
9.404e-04,-0.00915625,0.00174375
9.408e-04,-0.00825,0.00173594
9.412e-04,-0.00946875,0.0016125
9.416e-04,-0.0088125,0.00167031
9.420e-04,-0.00896875,0.0017625
9.424e-04,-0.0085625,0.00173438
9.428e-04,-0.00790625,0.00162656
9.432e-04,-0.00915625,0.00176094
9.436e-04,-0.00846875,0.00181875
9.440e-04,-0.00871875,0.00172656
9.444e-04,-0.0080625,0.00180156
9.448e-04,-0.00984375,0.00164375
9.452e-04,-0.00903125,0.00164531
9.456e-04,-0.00875,0.00169531
9.460e-04,-0.00921875,0.001575
9.464e-04,-0.00815625,0.0017
9.468e-04,-0.0085625,0.00176094
9.472e-04,-0.0093125,0.001625
9.476e-04,-0.0093125,0.00162031
9.480e-04,-0.0080625,0.00170938
9.484e-04,-0.00796875,0.00174688
9.488e-04,-0.00921875,0.001575
9.492e-04,-0.0095625,0.00157188
9.496e-04,-0.00859375,0.0016875
9.500e-04,-0.00871875,0.00159219
9.504e-04,-0.0095625,0.00161094
9.508e-04,-0.00915625,0.00165156
9.512e-04,-0.0080625,0.00158281
9.516e-04,-0.00890625,0.0015875
9.520e-04,-0.0095,0.00174375
9.524e-04,-0.00846875,0.00163906
9.528e-04,-0.008875,0.00170469
9.532e-04,-0.00925,0.00169219
9.536e-04,-0.00815625,0.00165781
9.540e-04,-0.0100313,0.0016125
9.544e-04,-0.0088125,0.0015875
9.548e-04,-0.00975,0.00157344
9.552e-04,-0.00809375,0.00161875
9.556e-04,-0.00809375,0.001675
9.560e-04,-0.0086875,0.00158281
9.564e-04,-0.00865625,0.00165313
9.568e-04,-0.00909375,0.0016
9.572e-04,-0.00846875,0.00171094
9.576e-04,-0.009,0.00161875
9.580e-04,-0.00903125,0.0015125
9.584e-04,-0.00871875,0.00149688
9.588e-04,-0.00903125,0.00159219

